Timestamp,Power (W)
1747441035851,51.024777
1747441036205,51.024777
1747441036453,51.024777
1747441036711,51.024777
1747441036973,47.273316
1747441037237,47.273316
1747441037499,47.273316
1747441037757,47.273316
1747441038013,58.825216
1747441038271,58.825216
1747441038532,58.825216
1747441038778,58.825216
1747441039023,58.447817
1747441039289,58.447817
1747441039531,58.447817
1747441039781,58.447817
1747441040031,57.974950
1747441040288,57.974950
1747441040549,57.974950
1747441040787,57.974950
1747441041041,58.056293
1747441041306,58.056293
1747441041559,58.056293
1747441041814,58.056293
1747441042073,60.667642
1747441042331,60.667642
1747441042588,60.667642
1747441042843,60.667642
1747441043102,59.231547
1747441043369,59.231547
1747441043620,59.231547
1747441043870,59.231547
1747441044124,59.144945
1747441044394,59.144945
1747441044644,59.144945
1747441044899,59.144945
1747441045153,58.073697
1747441045420,58.073697
1747441045667,58.073697
1747441045924,58.073697
1747441046173,58.524924
1747441046421,58.524924
1747441046656,58.524924
1747441046895,58.524924
1747441047150,57.638572
1747441047417,57.638572
1747441047664,57.638572
1747441047925,57.638572
1747441048178,59.711498
1747441048443,59.711498
1747441048705,59.711498
1747441048964,59.711498
1747441049216,60.511693
1747441049471,60.511693
1747441049723,60.511693
1747441049977,60.511693
1747441050220,59.101149
1747441050481,59.101149
1747441050733,59.101149
1747441050985,59.101149
1747441051231,59.109714
1747441051494,59.109714
1747441051743,59.109714
1747441052008,59.109714
1747441052263,58.958735
1747441052518,58.958735
1747441052757,58.958735
1747441053001,58.958735
1747441053248,60.587611
1747441053506,60.587611
1747441053753,60.587611
1747441054007,60.587611
1747441054270,58.497634
1747441054534,58.497634
1747441054790,58.497634
1747441055049,58.497634
1747441055305,59.450716
1747441055570,59.450716
1747441055825,59.450716
1747441056072,59.450716
1747441056330,60.924375
1747441056597,60.924375
1747441056848,60.924375
1747441057097,60.924375
1747441057346,58.932009
1747441057607,58.932009
1747441057854,58.932009
1747441058106,58.932009
1747441058357,58.439154
1747441058631,58.439154
1747441058878,58.439154
1747441059135,58.439154
1747441059387,57.116812
1747441059650,57.116812
1747441059900,57.116812
1747441060143,57.116812
1747441060390,59.003852
1747441060650,59.003852
1747441060911,59.003852
1747441061154,59.003852
1747441061409,58.760145
1747441061671,58.760145
1747441061919,58.760145
1747441062168,58.760145
1747441062415,58.493433
1747441062654,58.493433
1747441062915,58.493433
1747441063152,58.493433
1747441063412,58.426972
1747441063659,58.426972
1747441063927,58.426972
1747441064179,58.426972
1747441064426,58.454245
1747441064666,58.454245
1747441064932,58.454245
1747441065176,58.454245
1747441065424,59.814744
1747441065671,59.814744
1747441065929,59.814744
1747441066179,59.814744
1747441066423,58.907111
1747441066666,58.907111
1747441066919,58.907111
1747441067173,58.907111
1747441067431,57.969700
1747441067682,57.969700
1747441067937,57.969700
1747441068200,57.969700
1747441068446,58.358748
1747441068705,58.358748
1747441068962,58.358748
1747441069220,58.358748
1747441069470,59.024755
1747441069724,59.024755
1747441069966,59.024755
1747441070225,59.024755
1747441070473,58.801460
1747441070715,58.801460
1747441070964,58.801460
1747441071227,58.801460
1747441071476,59.191362
1747441071731,59.191362
1747441071963,59.191362
1747441072210,59.191362
1747441072470,58.897232
1747441072723,58.897232
1747441072967,58.897232
1747441073226,58.897232
1747441073481,58.070475
1747441073723,58.070475
1747441073975,58.070475
1747441074231,58.070475
1747441074488,57.388808
1747441074737,57.388808
1747441074984,57.388808
1747441075246,57.388808
1747441075509,58.402800
1747441075748,58.402800
1747441076000,58.402800
1747441076248,58.402800
1747441076514,58.668162
1747441076765,58.668162
1747441077007,58.668162
1747441077260,58.668162
1747441077519,57.970170
1747441077771,57.970170
1747441078025,57.970170
1747441078277,57.970170
1747441078533,58.243282
1747441078783,58.243282
1747441079025,58.243282
1747441079278,58.243282
1747441079523,58.992792
1747441079786,58.992792
1747441080037,58.992792
1747441080293,58.992792
1747441080544,59.380094
1747441080795,59.380094
1747441081041,59.380094
1747441081289,59.380094
1747441081541,59.591282
1747441081787,59.591282
1747441082038,59.591282
1747441082290,59.591282
1747441082552,59.703561
1747441082821,59.703561
1747441083080,59.703561
1747441083333,59.703561
1747441083596,57.841315
1747441083860,57.841315
1747441084104,57.841315
1747441084349,57.841315
1747441084608,59.902720
1747441084864,59.902720
1747441085113,59.902720
1747441085366,59.902720
1747441085606,58.120428
1747441085868,58.120428
1747441086119,58.120428
1747441086382,58.120428
1747441086635,59.291184
1747441086896,59.291184
1747441087148,59.291184
1747441087395,59.291184
1747441087641,58.215528
1747441087906,58.215528
1747441088150,58.215528
1747441088403,58.215528
1747441088650,58.304628
1747441088910,58.304628
1747441089160,58.304628
1747441089408,58.304628
1747441089653,59.414656
1747441089895,59.414656
1747441090158,59.414656
1747441090403,59.414656
1747441090657,58.940504
1747441090902,58.940504
1747441091153,58.940504
1747441091402,58.940504
1747441091661,59.797035
1747441091900,59.797035
1747441092153,59.797035
1747441092392,59.797035
1747441092637,59.139481
1747441092888,59.139481
1747441093134,59.139481
1747441093391,59.139481
1747441093643,60.575288
1747441093902,60.575288
1747441094150,60.575288
1747441094414,60.575288
1747441094656,58.730028
1747441094905,58.730028
1747441095142,58.730028
1747441095399,58.730028
1747441095646,59.053565
1747441095898,59.053565
1747441096140,59.053565
1747441096390,59.053565
1747441096640,58.400868
1747441096887,58.400868
1747441097133,58.400868
1747441097377,58.400868
1747441097634,56.716578
1747441097882,56.716578
1747441098129,56.716578
1747441098370,56.716578
1747441098612,56.716578
1747441099016,58.952442
1747441099264,58.952442
1747441099507,58.952442
1747441099747,58.952442
1747441100004,58.228310
1747441100250,58.228310
1747441100493,58.228310
1747441100737,58.228310
1747441100988,57.413166
1747441101245,57.413166
1747441101502,57.413166
1747441101755,57.413166
1747441102005,58.410699
1747441102276,58.410699
1747441102524,58.410699
1747441102782,58.410699
1747441103029,59.474627
1747441103303,59.474627
1747441103547,59.474627
1747441103798,59.474627
1747441104050,58.411898
1747441104291,58.411898
1747441104539,58.411898
1747441104785,58.411898
1747441105029,60.904538
1747441105277,60.904538
1747441105536,60.904538
1747441105778,60.904538
1747441106032,57.666928
1747441106266,57.666928
1747441106508,57.666928
1747441106766,57.666928
1747441107020,57.600817
1747441107282,57.600817
1747441107532,57.600817
1747441107792,57.600817
1747441108040,58.067526
1747441108290,58.067526
1747441108533,58.067526
1747441108785,58.067526
1747441109030,59.024127
1747441109288,59.024127
1747441109539,59.024127
1747441109802,59.024127
1747441110048,57.205671
1747441110298,57.205671
1747441110552,57.205671
1747441110807,57.205671
1747441111050,58.736581
1747441111309,58.736581
1747441111563,58.736581
1747441111830,58.736581
1747441112088,59.516530
1747441112340,59.516530
1747441112593,59.516530
1747441112850,59.516530
1747441113111,58.027294
1747441113363,58.027294
1747441113615,58.027294
1747441113874,58.027294
1747441114122,58.821134
1747441114380,58.821134
1747441114637,58.821134
1747441114906,58.821134
1747441115154,58.017323
1747441115404,58.017323
1747441115654,58.017323
1747441115921,58.017323
1747441116175,56.489660
1747441116425,56.489660
1747441116675,56.489660
1747441116934,56.489660
1747441117182,58.110256
1747441117434,58.110256
1747441117687,58.110256
1747441117951,58.110256
1747441118206,59.346908
1747441118467,59.346908
1747441118719,59.346908
1747441118987,59.346908
1747441119237,59.489165
1747441119478,59.489165
1747441119723,59.489165
1747441119983,59.489165
1747441120233,58.863983
1747441120489,58.863983
1747441120739,58.863983
1747441121000,58.863983
1747441121248,58.605648
1747441121487,58.605648
1747441121738,58.605648
1747441122004,58.605648
1747441122256,58.298642
1747441122510,58.298642
1747441122751,58.298642
1747441123007,58.298642
1747441123251,57.898450
1747441123502,57.898450
1747441123755,57.898450
1747441124019,57.898450
1747441124271,56.587994
1747441124533,56.587994
1747441124785,56.587994
1747441125050,56.587994
1747441125310,59.725217
1747441125560,59.725217
1747441125812,59.725217
1747441126077,59.725217
1747441126320,59.499473
1747441126563,59.499473
1747441126814,59.499473
1747441127072,59.499473
1747441127323,59.066616
1747441127578,59.066616
1747441127819,59.066616
1747441128080,59.066616
1747441128319,58.960230
1747441128564,58.960230
1747441128812,58.960230
1747441129064,58.960230
1747441129327,59.266464
1747441129566,59.266464
1747441129816,59.266464
1747441130056,59.266464
1747441130296,59.024658
1747441130559,59.024658
1747441130806,59.024658
1747441131045,59.024658
1747441131291,59.024658
1747441131546,57.733492
1747441131797,57.733492
1747441132043,57.733492
1747441132287,57.733492
1747441132541,58.708563
1747441132799,58.708563
1747441133052,58.708563
1747441133305,58.708563
1747441133570,58.472470
1747441133820,58.472470
1747441134066,58.472470
1747441134318,58.472470
1747441134576,59.259559
1747441134831,59.259559
1747441135081,59.259559
1747441135342,59.259559
1747441135601,58.700650
1747441135856,58.700650
1747441136105,58.700650
1747441136350,58.700650
1747441136595,59.317741
1747441136849,59.317741
1747441137101,59.317741
1747441137345,59.317741
1747441137584,57.787686
1747441137826,57.787686
1747441138096,57.787686
1747441138347,57.787686
1747441138594,58.858242
1747441138840,58.858242
1747441139096,58.858242
1747441139340,58.858242
1747441139590,58.393526
1747441139852,58.393526
1747441140111,58.393526
1747441140375,58.393526
1747441140631,57.278069
1747441140888,57.278069
1747441141140,57.278069
1747441141392,57.278069
1747441141643,57.309058
1747441141885,57.309058
1747441142143,57.309058
1747441142388,57.309058
1747441142638,57.802546
1747441142882,57.802546
1747441143123,57.802546
1747441143372,57.802546
1747441143620,58.563493
1747441143871,58.563493
1747441144127,58.563493
1747441144384,58.563493
1747441144627,57.823230
1747441144870,57.823230
1747441145111,57.823230
1747441145346,57.823230
1747441145605,57.823230
1747441145854,59.240632
1747441146091,59.240632
1747441146331,59.240632
1747441146568,59.240632
1747441146959,57.021394
Command: /home/x_thileeb/repos/OPS_mine/apps/c/jac2D9pt_fpga_experimental/hls/build/hw/jac2D9pt_host /home/x_thileeb/repos/OPS_mine/apps/c/jac2D9pt_fpga_experimental/hls/build/hw/jac2D9pt.xclbin -sizex=400 -sizey=400 -iters=60018 -piter=500
